# Model  cmass   T[K]     ne [cm^-3]    vturb [cm/s]
'CMASS'
'NONMAGNETIC'
'NORMAL'
          67
  1.23464e-06      22526.4      614530.       100000.00       0.0000000
  2.46928e-06      22549.5      639957.       100000.00       0.0000000
  0.000100082      22572.0  1.83770e+06       100000.00       0.0000000
  0.000232248      22607.0  4.55247e+06       100000.00       0.0000000
  0.000371929      22665.7  8.95457e+06       100000.00       0.0000000
  0.000723948      22748.0  2.50854e+07       100000.00       0.0000000
  0.000981981      22852.2  4.38731e+07       100000.00       0.0000000
   0.00155384      23060.7  1.00898e+08       100000.00       0.0000000
   0.00280966      23458.0  2.95115e+08       100000.00       0.0000000
   0.00359661      23830.9  4.91150e+08       100000.00       0.0000000
   0.00506728      24611.7  9.78243e+08       100000.00       0.0000000
   0.00653510      25603.0  1.65477e+09       100000.00       0.0000000
   0.00763761      26488.9  2.30066e+09       100000.00       0.0000000
   0.00923628      27842.4  3.43484e+09       100000.00       0.0000000
    0.0103879      28861.7  4.42264e+09       100000.00       0.0000000
    0.0119073      30188.1  5.94408e+09       100000.00       0.0000000
    0.0128591      31007.2  7.04435e+09       100000.00       0.0000000
    0.0139993      31962.2  8.51525e+09       100000.00       0.0000000
    0.0153976      33085.8  1.05656e+10       100000.00       0.0000000
    0.0171682      34424.1  1.35956e+10       100000.00       0.0000000
    0.0193328      35913.3  1.80678e+10       100000.00       0.0000000
    0.0223457      37768.3  2.60024e+10       100000.00       0.0000000
    0.0243573      38814.4  3.28465e+10       100000.00       0.0000000
    0.0269893      39990.3  4.41518e+10       100000.00       0.0000000
    0.0307845      41379.8  6.68768e+10       100000.00       0.0000000
    0.0379357      42939.5  1.42330e+11       100000.00       0.0000000
    0.0449576      43607.9  3.21872e+11       100000.00       0.0000000
    0.0480800      43784.2  5.03753e+11       100000.00       0.0000000
    0.0504136      43764.9  7.30387e+11       100000.00       0.0000000
    0.0520164      43472.8  9.64947e+11       100000.00       0.0000000
    0.0543296      42688.8  1.48173e+12       100000.00       0.0000000
    0.0560234      41714.8  2.10115e+12       100000.00       0.0000000
    0.0571612      40958.9  2.71271e+12       100000.00       0.0000000
    0.0587374      39975.5  3.95541e+12       100000.00       0.0000000
    0.0598608      39460.3  5.31393e+12       100000.00       0.0000000
    0.0623721      39656.9  1.06313e+13       100000.00       0.0000000
    0.0653305      40002.5  1.28230e+13       100000.00       0.0000000
    0.0684332      40286.9  1.50586e+13       100000.00       0.0000000
    0.0751260      40901.2  1.96643e+13       100000.00       0.0000000
    0.0824859      41531.7  2.45145e+13       100000.00       0.0000000
    0.0949691      42138.6  3.23612e+13       100000.00       0.0000000
     0.109376      42590.2  4.08781e+13       100000.00       0.0000000
     0.126017      43074.3  5.01749e+13       100000.00       0.0000000
     0.145241      43485.7  6.03013e+13       100000.00       0.0000000
     0.193293      44378.0  8.32501e+13       100000.00       0.0000000
     0.257407      45392.6  1.10471e+14       100000.00       0.0000000
     0.342962      47267.4  1.41793e+14       100000.00       0.0000000
     0.457296      48873.1  1.79558e+14       100000.00       0.0000000
     0.610079      50859.2  2.24919e+14       100000.00       0.0000000
     0.814146      53350.7  2.79127e+14       100000.00       0.0000000
     0.898738      53857.7  3.01623e+14       100000.00       0.0000000
      1.21446      56250.6  3.80524e+14       100000.00       0.0000000
      1.64172      58900.1  4.77924e+14       100000.00       0.0000000
      2.21999      61882.7  6.04694e+14       100000.00       0.0000000
      3.00183      65342.7  7.70863e+14       100000.00       0.0000000
      4.05954      69330.0  9.85539e+14       100000.00       0.0000000
      5.49011      73699.3  1.26895e+15       100000.00       0.0000000
      7.42381      78519.1  1.63811e+15       100000.00       0.0000000
      10.0378      83855.4  2.11326e+15       100000.00       0.0000000
      13.5713      89721.3  2.72081e+15       100000.00       0.0000000
      18.3475      96164.9  3.49355e+15       100000.00       0.0000000
      24.8033      103219.  4.47017e+15       100000.00       0.0000000
      33.5317      110918.  5.70265e+15       100000.00       0.0000000
      45.3357      119269.  7.27340e+15       100000.00       0.0000000
      61.3011      128267.  9.30506e+15       100000.00       0.0000000
      82.8907      137923.  1.19567e+16       100000.00       0.0000000
      112.112      148302.  1.54835e+16       100000.00       0.0000000
